Ignore LoS	False								
Ignore LF	False								
Cool Mode Select	False								
Man(T) Auto(F) Heat	False								
Scroll Wheel Inverted	True								
Set Var Perm	True								
LF Reset	False								
Gas B Max Flow Select	False								
About	False								
Ratio Lock	False								
Start w/ Manual Control	True								
Skip Auto Heat Phase	False								
Skip Auto Hold Phase	True								
Skip Auto Cool Phase	True								
Auto Manual	True								
PID Tuning	False								
Hold Indefinitely	False								
Auto-Logging Off	False								
Stopwatch Button	False								
Web1	False								
Web2	False								
Web3	False								
Web4	False								
Web5	False								
Web6	False								
Set Campaign Folder Button	False								
Density Enable	False								
Web Interface On/Off	False								
Density Button	False								
Manual Pull	False								
No Dely on File Select	True								
Write Note	False								
Pressure Enable/Disable	False								
Skip cDAQ Values	True								
Master Pressure Enable	False								
Dev Version	False								
Master Purge Gas Enable	False								
Two Purge Channels	False								
Two Gas Channels	True								
Three Gas Channels	True								
SP1	False								
SP2	False								
SP3	False								
Clear Errors	False								
Nozzle Spinner On/Off	False								
Master Nozzle Spinner Enable	False								
Init Canceled?	False								
Gas2/3 Help	False								
Networked Primary MFCs	True								
Master Density Enable	False								
Master Web Interface Enable	True								
Networked Purge MFCs	False								
Cool PID.P gain	0.000001								
Cool PID.I time	0.002000								
Cool PID.D time	0.000000								
Heat PID.P gain	0.000001								
Heat PID.I time	0.005000								
Heat PID.D time	0.000000								
Hold PID.P gain	0.000001								
Hold PID.I time	0.050000								
Hold PID.D time	0.000000								
Loss of Sample Config.# Aves	100								
Loss of Sample Config.Temp Lag (s)	1.500000								
Loss of Sample Config.Loop mSec Time	0								
Loss of Sample Config.Temp Rate Threshold	20.000000								
Loss of Sample Config.Cmd Rate Threshold	0.100000								
Laser Fault Config.Min Cmd	0.100000								
Laser Fault Config.Min Temp	650.000000								
Laser Fault Config.LF Time Limit	3.500000								
TCOR.Wavelength	0.900000								
TCOR.Window	0.850000								
TCOR.Emissivity	0.920000								
Heat Rate	100.000000								
Cool Rate	100.000000								
Heat Temp	1600.000000								
Cool Temp	430.000000								
Hold Temp	3460.000000								
Gas Control	375.000000								
Laser Output	0.000000								
Max Laser Power%	20.000000								
Gas Ratio	85.000000								
Target Ratio	0.000000								
Total Time (s)	25.000000								
Gas Channel 1 Max Flow	2000.000000								
Gas Channel 2 Max Flow	2000.000000								
Gas Channel 3 Max Flow	50.000000								
Gas B Max Flow	2000.000000								
Max Gas Flow	1000.000000								
Starting Sample Mass (mg)	0.000000								
Pics to Take	1.000000								
Pics to Que	1.000000								
Set Point (Torr)	700.000000								
Laser Scroll Sensitivity	20.000000								
Laser Min Temp Offset	50.000000								
Admin Control Tabs	PID								
Tab Control 3	PID								
StartUpTab	Running								
Data Rate (Hz)	10								
# Cycles	1								
Primary MFC Count	3								
Purge MFC Count	0								
WebBrowser	0x28600000								
FP Version	HT-CNL™ Controller								
Gas A	Ar*								
Gas B	O2*								
Next Filename	Type Filename Here								
Set Campaign Folder									
Log Note									
MFC Address 1	192.168.50.51								
MFC Address 2	192.168.50.52								
MFC Address 3	192.168.50.53								
MFC Address 4	192.168.50.54								
MFC Address 5	192.168.50.55								
Network cDAQ String	cDAQ1								
About Text Version	Version 2.2.3								
About Text Onsite	Dr. Catherine Macris - camacris@iupui.edu								
About Text Offsite 1	Rick Weber - President - rweber@matsdev.com								
About Text Offsite 2	Anthony Tamalonis - Senior R&D Technologist - ajt@matsdev.com								
Time To Hold	5								
Pyrometer 	600-3000								
5/26/2017	4:37 PM								
Time	Pyro Raw Value	Corrected Temp	Laser Power	Cool	Gas Channel A Voltage	Gas Channel B Voltage	Pressure	Density	Comment
0.384	558.628035	569.407785	0	1	0.140625	0.796875	0		
0.85	553.826895	564.481763	0	1	0.140625	0.796875	0		
0.95	558.873069	569.659213	0	1	0.140625	0.796875	0		
1.05	560.052296	570.869235	0	1	0.140625	0.796875	0		
1.164	559.715374	570.52351	0	1	0.140625	0.796875	0		
1.264	559.49714	570.299576	0	1	0.140625	0.796875	0		
1.364	554.921892	565.605177	0	1	0.140625	0.796875	0		
1.47	555.262642	565.954778	0	1	0.140625	0.796875	0		
1.57	556.522272	567.247158	0	1	0.140625	0.796875	0		
1.671	555.182241	565.872288	0	1	0.140625	0.796875	0		
1.773	554.826175	565.506975	0	1	0.140625	0.796875	0		
1.902	560.09824	570.916379	0	1	0.140625	0.796875	0		
2.003	557.245888	567.989612	0	1	0.140625	0.796875	0		
2.279	557.647898	568.402094	0	1	0.140625	0.796875	0		
2.402	561.043919	571.886788	0	1	0.140625	0.796875	0		
2.502	558.922841	569.710284	0	1	0.140625	0.796875	0		
2.603	558.080536	568.846008	0	1	0.140625	0.796875	0		
2.705	555.95563	566.665777	0	1	0.140625	0.796875	0		
2.807	556.721362	567.45143	0	1	0.140625	0.796875	0		
2.907	556.254265	566.97218	0	1	0.140625	0.796875	0		
3.007	556.147063	566.862189	0	1	0.140625	0.796875	0		
3.114	557.617268	568.370666	0	1	0.140625	0.796875	0		
3.215	555.2971	565.990132	0	1	0.140625	0.796875	0		
3.316	558.145623	568.912793	0	1	0.140625	0.796875	0		
3.416	559.286564	570.083501	0	1	0.140625	0.796875	0		
3.524	556.832393	567.565351	0	1	0.140625	0.796875	0		
3.625	550.997515	561.579133	0	1	0.140625	0.796875	0		
3.726	553.030534	563.664759	0	1	0.140625	0.796875	0		
3.826	553.091792	563.727605	0	1	0.140625	0.796875	0		
3.926	557.571324	568.323526	0	1	0.140625	0.796875	0		
4.027	555.890543	566.598998	0	1	0.140625	0.796875	0		
4.128	557.502409	568.252814	0	1	0.140625	0.796875	0		
4.236	559.451197	570.252432	0	1	0.140625	0.796875	0		
4.338	555.473219	566.170826	0	1	0.140625	0.796875	0		
4.439	556.843879	567.577136	0	1	0.140625	0.796875	0		
4.542	559.255935	570.052072	0	1	0.140625	0.796875	0		
4.643	557.533038	568.284241	0	1	0.140625	0.796875	0		
4.743	554.370565	565.039537	0	1	0.140625	0.796875	0		
4.844	558.046078	568.810652	0	1	0.140625	0.796875	0		
5.205	556.495471	567.21966	0	1	0.140625	0.796875	0		
5.308	559.190848	569.985286	0	1	0.140625	0.796875	0		
5.408	555.216699	565.907641	0	1	0.140625	0.796875	0		
5.508	556.893652	567.628204	0	1	0.140625	0.796875	0		
5.613	556.587359	567.313939	0	1	0.140625	0.796875	0		
5.713	553.949412	564.607458	0	1	0.140625	0.796875	0		
5.813	555.032923	565.719092	0	1	0.140625	0.796875	0		
5.913	557.284175	568.028896	0	1	0.140625	0.796875	0		
6.019	556.774963	567.506426	0	1	0.140625	0.796875	0		
6.119	557.866131	568.626015	0	1	0.140625	0.796875	0		
6.22	556.315524	567.035032	0	1	0.140625	0.796875	0		
6.325	556.606502	567.333581	0	1	0.140625	0.796875	0		
6.425	556.009231	566.720773	0	1	0.140625	0.796875	0		
6.525	555.224356	565.915497	0	1	0.140625	0.796875	0		
6.626	554.531368	565.204514	0	1	0.140625	0.796875	0		
6.736	557.18463	567.926758	0	1	0.140625	0.796875	0		
6.837	556.104948	566.818978	0	1	0.140625	0.796875	0		
6.938	554.657714	565.33414	0	1	0.140625	0.796875	0		
7.04	554.232733	564.898129	0	1	0.140625	0.796875	0		
7.141	556.874508	567.608562	0	1	0.140625	0.796875	0		
7.241	554.025985	564.686017	0	1	0.140625	0.796875	0		
7.341	554.159988	564.823497	0	1	0.140625	0.796875	0		
7.45	555.679966	566.382947	0	1	0.140625	0.796875	0		
7.55	551.820677	562.42358	0	1	0.140625	0.796875	0		
7.65	552.521322	563.142358	0	1	0.140625	0.796875	0		
7.754	555.339216	566.033341	0	1	0.140625	0.796875	0		
7.854	552.192057	562.80457	0	1	0.140625	0.796875	0		
7.954	557.448807	568.197817	0	1	0.140625	0.796875	0		
8.055	556.062832	566.775768	0	1	0.140625	0.796875	0		
8.164	555.35453	566.049054	0	1	0.140625	0.796875	0		
8.264	557.234402	567.977827	0	1	0.140625	0.796875	0		
8.364	557.590468	568.343168	0	1	0.140625	0.796875	0		
8.47	556.407412	567.12931	0	1	0.140625	0.796875	0		
8.571	553.371284	564.01434	0	1	0.140625	0.796875	0		
8.672	554.72663	565.404845	0	1	0.140625	0.796875	0		
8.773	558.559119	569.337071	0	1	0.140625	0.796875	0		
8.88	557.019997	567.757839	0	1	0.140625	0.796875	0		
8.981	554.167646	564.831353	0	1	0.140625	0.796875	0		
9.082	555.163097	565.852647	0	1	0.140625	0.796875	0		
9.183	554.952521	565.636602	0	1	0.140625	0.796875	0		
9.283	555.209041	565.899785	0	1	0.140625	0.796875	0		
9.383	558.317913	569.089575	0	1	0.140625	0.796875	0		
9.485	553.287054	563.927926	0	1	0.140625	0.796875	0		
9.591	552.976932	563.609769	0	1	0.140625	0.796875	0		
9.692	557.32629	568.072108	0	1	0.140625	0.796875	0		
9.792	553.815409	564.469979	0	1	0.140625	0.796875	0		
9.9	552.425605	563.044163	0	1	0.140625	0.796875	0		
10.001	556.193007	566.909328	0	1	0.140625	0.796875	0		
10.101	557.169315	567.911045	0	1	0.140625	0.796875	0		
10.201	556.859194	567.592849	0	1	0.140625	0.796875	0		
10.307	555.519163	566.217964	0	1	0.140625	0.796875	0		
10.407	557.092742	567.832478	0	1	0.140625	0.796875	0		
10.508	557.69767	568.453163	0	1	0.140625	0.796875	0		
10.613	554.014499	564.674233	0	1	0.140625	0.796875	0		
10.714	558.103508	568.869579	0	1	0.140625	0.796875	0		
10.815	557.513895	568.264599	0	1	0.140625	0.796875	0		
10.916	558.972614	569.761356	0	1	0.140625	0.796875	0		
11.022	559.776633	570.586368	0	1	0.140625	0.796875	0		
11.122	552.957789	563.59013	0	1	0.140625	0.796875	0		
11.222	554.202104	564.866705	0	1	0.140625	0.796875	0		
11.326	557.219088	567.962114	0	1	0.140625	0.796875	0		
11.427	557.353091	568.099607	0	1	0.140625	0.796875	0		
11.527	556.786449	567.518211	0	1	0.140625	0.796875	0		
11.627	555.373674	566.068694	0	1	0.140625	0.796875	0		
11.737	557.131029	567.871761	0	1	0.140625	0.796875	0		
11.837	556.981711	567.718556	0	1	0.140625	0.796875	0		
11.938	555.614879	566.316168	0	1	0.140625	0.796875	0		
12.042	556.939596	567.675344	0	1	0.140625	0.796875	0		
12.142	554.588798	565.263435	0	1	0.140625	0.796875	0		
12.243	554.18296	564.847065	0	1	0.140625	0.796875	0		
12.344	558.321742	569.093503	0	1	0.140625	0.796875	0		
12.451	555.588079	566.288671	0	1	0.140625	0.796875	0		
12.552	553.872839	564.528898	0	1	0.140625	0.796875	0		
12.653	553.29854	563.93971	0	1	0.140625	0.796875	0		
12.755	558.046078	568.810652	0	1	0.140625	0.796875	0		
12.855	556.235122	566.952538	0	1	0.140625	0.796875	0		
12.955	555.925001	566.634352	0	1	0.140625	0.796875	0		
13.056	558.953471	569.741713	0	1	0.140625	0.796875	0		
13.161	558.402144	569.176002	0	1	0.140625	0.796875	0		
13.261	559.902978	570.716015	0	1	0.140625	0.796875	0		
13.361	556.889823	567.624276	0	1	0.140625	0.796875	0		
13.469	561.84028	572.703996	0	1	0.140625	0.796875	0		
13.57	560.09824	570.916379	0	1	0.140625	0.796875	0		
13.671	557.065941	567.804979	0	1	0.140625	0.796875	0		
13.771	558.3562	569.12886	0	1	0.140625	0.796875	0		
13.88	557.203773	567.9464	0	1	0.140625	0.796875	0		
13.98	557.621097	568.374595	0	1	0.140625	0.796875	0		
14.08	556.648617	567.376792	0	1	0.140625	0.796875	0		
14.184	555.588079	566.288671	0	1	0.140625	0.796875	0		
14.285	559.715374	570.52351	0	1	0.140625	0.796875	0		
14.386	559.914464	570.727801	0.05	1	0.140625	0.796875	0		
14.488	558.980271	569.769213	0.1	1	0.140625	0.796875	0		
14.594	559.860863	570.6728	0.2	1	0.140625	0.796875	0		
14.695	556.487814	567.211804	0.25	1	0.140625	0.796875	0		
14.795	555.09801	565.785869	0.25	1	0.140625	0.796875	0		
14.898	554.416509	565.086673	0.25	1	0.140625	0.796875	0		
14.999	557.188458	567.930687	0.3	1	0.140625	0.796875	0		
15.099	559.343994	570.14243	0.35	1	0.140625	0.796875	0		
15.2	558.279627	569.05029	0.4	1	0.140625	0.796875	0		
15.309	561.120492	571.965365	0.5	1	0.140625	0.796875	0		
15.41	560.952031	571.792496	0.55	1	0.140625	0.796875	0		
15.51	556.288723	567.007534	0.65	1	0.140625	0.796875	0		
15.613	552.559609	563.181636	0.65	1	0.140625	0.796875	0		
15.713	554.596456	565.271291	0.65	1	0.140625	0.796875	0		
15.813	558.390658	569.164216	0.7	1	0.140625	0.796875	0		
15.914	557.950362	568.712441	0.75	1	0.140625	0.796875	0		
16.019	557.452636	568.201745	0.85	1	0.140625	0.796875	0		
16.121	556.170035	566.885758	0.9	1	0.140625	0.796875	0		
16.221	554.937206	565.620889	0.95	1	0.140625	0.796875	0		
16.327	557.245888	567.989612	1	1	0.140625	0.796875	0		
16.428	560.262872	571.085315	1	1	0.140625	0.796875	0		
16.528	558.570605	569.348857	1	1	0.140625	0.796875	0		
16.629	556.357639	567.078243	1.1	1	0.140625	0.796875	0		
16.736	556.189178	566.905399	1.15	1	0.140625	0.796875	0		
16.836	557.919733	568.681013	1.2	1	0.140625	0.796875	0		
16.937	560.285844	571.108887	1.35	1	0.140625	0.796875	0		
17.037	560.515564	571.344613	1.35	1	0.140625	0.796875	0		
17.137	558.819468	569.604213	1.35	1	0.140625	0.796875	0		
17.237	556.84005	567.573207	1.35	1	0.140625	0.796875	0		
17.337	556.135577	566.850404	1.4	1	0.140625	0.796875	0		
17.453	554.167646	564.831353	1.5	1	0.140625	0.796875	0		
17.553	556.518443	567.24323	1.55	1	0.140625	0.796875	0		
17.653	552.888873	563.519428	1.6	1	0.140625	0.796875	0		
17.757	555.722082	566.426157	1.7	1	0.140625	0.796875	0		
17.857	556.124091	566.838619	1.75	1	0.140625	0.796875	0		
17.957	551.75559	562.356809	1.75	1	0.140625	0.796875	0		
18.057	553.964727	564.62317	1.8	1	0.140625	0.796875	0		
18.165	556.774963	567.506426	1.9	1	0.140625	0.796875	0		
18.265	555.350702	566.045126	1.95	1	0.140625	0.796875	0		
18.367	555.626365	566.327953	2.05	1	0.140625	0.796875	0		
18.47	558.046078	568.810652	2.1	1	0.140625	0.796875	0		
18.571	554.35525	565.023825	2.15	1	0.140625	0.796875	0		
18.672	555.052066	565.738732	2.2	1	0.140625	0.796875	0		
18.772	554.89892	565.581608	2.25	1	0.140625	0.796875	0		
18.88	553.030534	563.664759	2.35	1	0.140625	0.796875	0		
18.98	553.451686	564.096826	2.4	1	0.140625	0.796875	0		
19.08	553.685235	564.336429	2.45	1	0.140625	0.796875	0		
19.184	555.224356	565.915497	2.5	1	0.140625	0.796875	0		
19.285	556.824736	567.557494	2.55	1	0.140625	0.796875	0		
19.387	558.601234	569.380285	2.6	1	0.140625	0.796875	0		
19.487	555.871399	566.579357	2.65	1	0.140625	0.796875	0		
19.596	555.224356	565.915497	2.7	1	0.140625	0.796875	0		
19.697	556.09729	566.811122	2.75	1	0.140625	0.796875	0		
19.799	555.396646	566.092263	2.85	1	0.140625	0.796875	0		
19.899	555.339216	566.033341	2.9	1	0.140625	0.796875	0		
20	554.826175	565.506975	2.95	1	0.140625	0.796875	0		
20.1	553.486144	564.132177	3	1	0.140625	0.796875	0		
20.202	557.219088	567.962114	3.1	1	0.140625	0.796875	0		
20.311	555.46939	566.166898	3.15	1	0.140625	0.796875	0		
20.411	553.363627	564.006484	3.2	1	0.140625	0.796875	0		
20.511	551.139176	561.724455	3.3	1	0.140625	0.796875	0		
20.615	554.722801	565.400917	3.35	1	0.140625	0.796875	0		
20.716	559.638801	570.444936	3.35	1	0.140625	0.796875	0		
20.826	559.474169	570.276004	3.35	1	0.140625	0.796875	0		
20.926	557.674698	568.429593	3.45	1	0.140625	0.796875	0		
21.027	554.217418	564.882417	3.5	1	0.140625	0.796875	0		
21.127	548.719463	559.24229	3.55	1	0.140625	0.796875	0		
21.227	555.695281	566.39866	3.6	1	0.140625	0.796875	0		
21.329	557.18463	567.926758	3.65	1	0.140625	0.796875	0		
21.43	551.487584	562.081871	3.7	1	0.140625	0.796875	0		
21.53	553.287054	563.927926	3.7	1	0.140625	0.796875	0		
21.631	552.054225	562.663171	3.75	1	0.140625	0.796875	0		
21.731	554.320792	564.988473	3.85	1	0.140625	0.796875	0		
21.831	557.701499	568.457092	3.9	1	0.140625	0.796875	0		
21.931	556.101119	566.81505	3.95	1	0.140625	0.796875	0		
22.032	551.5833	562.180063	4	1	0.140625	0.796875	0		
22.132	553.095621	563.731532	4.1	1	0.140625	0.796875	0		
22.232	556.75582	567.486784	4.1	1	0.140625	0.796875	0		
22.333	559.053016	569.843856	4.15	1	0.140625	0.796875	0		
22.434	557.92739	568.68887	4.25	1	0.140625	0.796875	0		
22.541	559.121932	569.914571	4.3	1	0.140625	0.796875	0		
22.641	561.64119	572.499692	4.35	1	0.140625	0.796875	0		
22.742	561.859424	572.723641	4.45	1	0.140625	0.796875	0		
22.843	559.566056	570.370292	4.45	1	0.140625	0.796875	0		
22.949	556.522272	567.247158	4.45	1	0.140625	0.796875	0		
23.05	559.072159	569.863499	4.5	1	0.140625	0.796875	0		
23.15	560.630424	571.462476	4.55	1	0.140625	0.796875	0		
23.256	562.759159	573.646954	4.6	1	0.140625	0.796875	0		
23.359	559.608172	570.413507	4.7	1	0.140625	0.796875	0		
23.459	556.648617	567.376792	4.75	1	0.140625	0.796875	0		
23.559	555.293272	565.986204	4.8	1	0.140625	0.796875	0		
23.665	555.66848	566.371163	4.8	1	0.140625	0.796875	0		
23.766	559.21382	570.008857	4.85	1	0.140625	0.796875	0		
23.867	560.079097	570.896736	4.95	1	0.140625	0.796875	0		
23.969	561.579932	572.436829	5	1	0.140625	0.796875	0		
24.069	559.179362	569.9735	5.05	1	0.140625	0.796875	0		
24.169	559.654116	570.460651	5.1	1	0.140625	0.796875	0		
24.271	556.415069	567.137167	5.2	1	0.140625	0.796875	0		
24.381	552.865901	563.495861	5.25	1	0.140625	0.796875	0		
24.481	553.593347	564.242159	5.3	1	0.140625	0.796875	0		
24.581	554.627085	565.302715	5.35	1	0.140625	0.796875	0		
24.683	554.630914	565.306644	5.4	1	0.140625	0.796875	0		
24.785	552.433263	563.052019	5.5	1	0.140625	0.796875	0		
24.886	557.06977	567.808908	5.55	1	0.140625	0.796875	0		
24.986	559.217648	570.012786	5.6	1	0.140625	0.796875	0		
25.094	560.561508	571.391758	5.65	1	0.140625	0.796875	0		
25.195	561.476558	572.330749	5.7	1	0.140625	0.796875	0		
25.296	557.644069	568.398165	5.75	1	0.140625	0.796875	0		
25.399	554.477767	565.149522	5.8	1	0.140625	0.796875	0		
25.499	554.61177	565.287003	5.85	1	0.140625	0.796875	0		
25.599	556.828564	567.561422	5.95	1	0.140625	0.796875	0		
25.7	556.38444	567.10574	6	1	0.140625	0.796875	0		
25.807	552.731898	563.358387	6.05	1	0.140625	0.796875	0		
25.908	553.026705	563.660831	6.1	1	0.140625	0.796875	0		
26.008	555.228185	565.919425	6.2	1	0.140625	0.796875	0		
26.113	553.735007	564.387492	6.25	1	0.140625	0.796875	0		
26.218	556.958739	567.694986	6.35	1	0.140625	0.796875	0		
26.319	554.914234	565.597321	6.4	1	0.140625	0.796875	0		
26.42	553.543574	564.191096	6.45	1	0.140625	0.796875	0		
26.523	554.24039	564.905985	6.55	1	0.140625	0.796875	0		
26.624	555.538306	566.237605	6.6	1	0.140625	0.796875	0		
26.724	558.072879	568.838151	6.65	1	0.140625	0.796875	0		
26.827	553.876668	564.532826	6.7	1	0.140625	0.796875	0		
26.927	551.422497	562.015101	6.8	1	0.140625	0.796875	0		
27.027	549.209531	559.744992	6.8	1	0.140625	0.796875	0		
27.129	554.454795	565.125954	6.9	1	0.140625	0.796875	0		
27.239	558.513175	569.289929	6.95	1	0.140625	0.796875	0		
27.34	558.639521	569.419571	7	1	0.140625	0.796875	0		
27.441	558.421287	569.195644	7.1	1	0.140625	0.796875	0		
27.542	554.359079	565.027753	7.15	1	0.140625	0.796875	0		
27.643	552.513665	563.134503	7.15	1	0.140625	0.796875	0		
27.744	554.519882	565.19273	7.2	1	0.140625	0.796875	0		
27.844	554.263362	564.929553	7.25	1	0.140625	0.796875	0		
27.951	553.712035	564.363925	7.3	1	0.140625	0.796875	0		
28.053	553.746493	564.399276	7.35	1	0.140625	0.796875	0		
28.153	554.937206	565.620889	7.45	1	0.140625	0.796875	0		
28.256	558.187739	568.956006	7.5	1	0.140625	0.796875	0		
28.357	556.21215	566.928969	7.5	1	0.140625	0.796875	0		
28.458	558.777352	569.560998	7.6	1	0.140625	0.796875	0		
28.559	556.970225	567.706771	7.65	1	0.140625	0.796875	0		
28.665	555.408132	566.104048	7.7	1	0.140625	0.796875	0		
28.766	555.871399	566.579357	7.75	1	0.140625	0.796875	0		
28.866	554.856805	565.538399	7.85	1	0.140625	0.796875	0		
28.97	556.104948	566.818978	7.9	1	0.140625	0.796875	0		
29.071	556.759649	567.490713	7.95	1	0.140625	0.796875	0		
29.171	557.766586	568.523875	8	1	0.140625	0.796875	0		
29.273	554.883605	565.565896	8.1	1	0.140625	0.796875	0		
29.381	553.880496	564.536754	8.15	1	0.140625	0.796875	0		
29.482	555.465561	566.16297	8.2	1	0.140625	0.796875	0		
29.582	556.265751	566.983964	8.25	1	0.140625	0.796875	0		
29.685	555.151611	565.840863	8.3	1	0.140625	0.796875	0		
29.787	556.572044	567.298226	8.35	1	0.140625	0.796875	0		
29.887	558.034592	568.798867	8.45	1	0.140625	0.796875	0		
29.989	555.672309	566.375091	8.5	1	0.140625	0.796875	0		
30.097	559.910636	570.723873	8.55	1	0.140625	0.796875	0		
30.197	556.204493	566.921112	8.6	1	0.140625	0.796875	0		
30.297	558.076708	568.84208	8.65	1	0.140625	0.796875	0		
30.401	565.718713	576.684247	8.7	1	0.140625	0.796875	0		
30.501	564.815149	575.756919	8.8	1	0.140625	0.796875	0		
30.601	564.776863	575.717626	8.85	1	0.140625	0.796875	0		
30.704	574.451886	585.648449	8.9	1	0.140625	0.796875	0		
30.813	585.053446	596.533744	9	1	0.140625	0.796875	0		
30.914	612.409222	624.638282	9.05	1	0.140625	0.796875	0		
31.022	616.838981	629.191546	9.15	1	0.140625	0.796875	0		
31.123	613.760739	626.027414	9.2	1	0.140625	0.796875	0		
31.223	624.932769	637.512618	9.25	1	0.140625	0.796875	0		
31.327	636.564238	649.474393	9.3	1	0.140625	0.796875	0		
31.428	657.12797	670.632713	9.35	1	0.140625	0.796875	0		
31.529	670.61634	684.518466	9.4	1	0.140625	0.796875	0		
31.63	670.823087	684.73135	9.45	1	0.140625	0.796875	0		
31.732	684.468432	698.784744	9.55	1	0.140625	0.796875	0		
31.833	700.012791	714.801238	9.6	1	0.140625	0.796875	0		
31.935	716.897182	732.207276	9.7	1	0.140625	0.796875	0		
32.041	739.271871	755.287387	9.7	1	0.140625	0.796875	0		
32.141	763.936098	780.747926	9.7	1	0.140625	0.796875	0		
32.242	797.111437	815.025345	9.75	1	0.140625	0.796875	0		
32.343	840.180034	859.577769	9.85	1	0.140625	0.796875	0		
32.452	885.564969	906.591373	9.9	1	0.140625	0.796875	0		
32.553	916.481399	938.655545	9.9	1	0.140625	0.796875	0		
32.653	942.987212	966.170105	9.9	1	0.140625	0.796875	0		
32.756	964.871833	988.904838	9.9	1	0.140625	0.796875	0		
32.856	998.334321	1023.697368	9.9	1	0.140625	0.796875	0		
32.956	1020.716667	1046.989748	9.95	1	0.140625	0.796875	0		
33.056	1045.564671	1072.867208	10	1	0.140625	0.796875	0		
33.166	1076.435156	1105.044801	10.05	1	0.140625	0.796875	0		
33.266	1097.837366	1127.371538	10.05	1	0.140625	0.796875	0		
33.367	1109.124255	1139.152045	10.05	1	0.140625	0.796875	0		
33.47	1115.008906	1145.295711	10.05	1	0.140625	0.796875	0		
33.57	1148.203388	1179.972558	10.05	1	0.140625	0.796875	0		
33.671	1187.117888	1220.670988	10.1	1	0.140625	0.796875	0		
33.772	1212.107552	1246.832526	10.15	1	0.140625	0.796875	0		
33.881	1219.278632	1254.34369	10.2	1	0.140625	0.796875	0		
33.982	1137.073473	1168.341582	10.25	1	0.140625	0.796875	0		
34.083	1029.541729	1056.178121	10.25	1	0.140625	0.796875	0		
34.185	1032.742488	1059.51128	10.25	1	0.140625	0.796875	0		
34.287	1136.916498	1168.177569	10.25	1	0.140625	0.796875	0		
34.388	1221.254221	1256.413268	10.25	1	0.140625	0.796875	0		
34.488	1238.701424	1274.696116	10.3	1	0.140625	0.796875	0		
34.595	1239.888309	1275.940212	10.4	1	0.140625	0.796875	0		
34.696	1178.9705	1212.14598	10.45	1	0.140625	0.796875	0		
34.797	1083.192741	1112.092677	10.45	1	0.140625	0.796875	0		
34.899	1071.128634	1099.51137	10.45	1	0.140625	0.796875	0		
34.999	1106.804087	1136.730067	10.45	1	0.140625	0.796875	0		
35.1	1154.945658	1187.020342	10.45	1	0.140625	0.796875	0		
35.202	1182.6843	1216.031639	10.5	1	0.140625	0.796875	0		
35.309	1184.77092	1218.215017	10.6	1	0.140625	0.796875	0		
35.409	1186.344499	1219.86166	10.65	1	0.140625	0.796875	0		
35.51	1206.153986	1240.597903	10.7	1	0.140625	0.796875	0		
35.615	1231.775379	1267.43714	10.7	1	0.140625	0.796875	0		
35.715	1277.236887	1315.112881	10.75	1	0.140625	0.796875	0		
35.815	1325.933614	1366.25724	10.8	1	0.140625	0.796875	0		
35.915	1359.139582	1401.1773	10.85	1	0.140625	0.796875	0		
36.023	1386.40347	1429.875915	10.95	1	0.140625	0.796875	0		
36.123	1418.437868	1463.627661	11	1	0.140625	0.796875	0		
36.223	1439.08966	1485.404695	11	1	0.140625	0.796875	0		
36.327	1461.958246	1509.535894	11	1	0.140625	0.796875	0		
36.427	1485.332216	1534.21841	11.05	1	0.140625	0.796875	0		
36.528	1499.896438	1549.607209	11.1	1	0.140625	0.796875	0		
36.628	1509.667179	1559.935108	11.15	1	0.140625	0.796875	0		
36.738	1522.569763	1573.578331	11.25	1	0.140625	0.796875	0		
36.838	1530.303656	1581.758838	11.25	1	0.140625	0.796875	0		
36.938	1546.705635	1599.114618	11.25	1	0.140625	0.796875	0		
37.042	1563.961406	1617.383566	11.25	1	0.140625	0.796875	0		
37.143	1570.803222	1624.629864	11.25	1	0.140625	0.796875	0		
37.243	1578.858722	1633.163612	11.3	1	0.140625	0.796875	0		
37.348	1588.215967	1643.07912	11.4	1	0.140625	0.796875	0		
37.452	1593.824954	1649.024154	11.45	1	0.140625	0.796875	0		
37.553	1605.935006	1661.863349	11.45	1	0.140625	0.796875	0		
37.653	1610.533226	1666.739717	11.45	1	0.140625	0.796875	0		
37.755	1610.663401	1666.877776	11.45	1	0.140625	0.796875	0		
37.855	1596.83811	1652.218271	11.45	1	0.140625	0.796875	0		
37.955	1565.86425	1619.398747	11.45	1	0.140625	0.796875	0		
38.059	1543.294299	1595.504165	11.55	1	0.140625	0.796875	0		
38.166	1549.879595	1602.474188	11.6	1	0.140625	0.796875	0		
38.267	1560.707045	1613.937361	11.65	1	0.140625	0.796875	0		
38.368	1564.52039	1617.975539	11.65	1	0.140625	0.796875	0		
38.469	1563.52111	1616.917294	11.65	1	0.140625	0.796875	0		
38.571	1563.333506	1616.718624	11.65	1	0.140625	0.796875	0		
38.671	1561.629752	1614.914426	11.65	1	0.140625	0.796875	0		
38.772	1563.490481	1616.884858	11.7	1	0.140625	0.796875	0		
38.88	1562.942983	1616.305069	11.8	1	0.140625	0.796875	0		
38.98	1572.449545	1626.373752	11.85	1	0.140625	0.796875	0		
39.08	1579.582339	1633.930296	11.85	1	0.140625	0.796875	0		
39.185	1579.249245	1633.577376	11.85	1	0.140625	0.796875	0		
39.286	1576.733816	1630.912341	11.85	1	0.140625	0.796875	0		
39.387	1579.37942	1633.715298	11.85	1	0.140625	0.796875	0		
39.491	1584.75103	1639.407119	11.95	1	0.140625	0.796875	0		
39.595	1591.680904	1646.751525	12	1	0.140625	0.796875	0		
39.695	1593.733066	1648.926753	12	1	0.140625	0.796875	0		
39.795	1581.534956	1635.999212	12	1	0.140625	0.796875	0		
39.899	1577.273657	1631.484271	12	1	0.140625	0.796875	0		
39.999	1583.916382	1638.522652	12	1	0.140625	0.796875	0		
40.1	1592.649555	1647.778247	12	1	0.140625	0.796875	0		
40.201	1614.821326	1671.287845	12.1	1	0.140625	0.796875	0		
40.309	1631.26542	1688.734833	12.15	1	0.140625	0.796875	0		
40.41	1668.204332	1727.959748	12.2	1	0.140625	0.796875	0		
40.51	1695.632852	1757.115449	12.2	1	0.140625	0.796875	0		
40.613	1726.61054	1790.07433	12.2	1	0.140625	0.796875	0		
40.714	1778.109846	1844.939076	12.2	1	0.140625	0.796875	0		
40.815	1769.924171	1836.212475	12.25	1	0.140625	0.796875	0		
40.915	1737.794056	1801.981056	12.3	1	0.140625	0.796875	0		
41.019	1769.280956	1835.526851	12.35	1	0.140625	0.796875	0		
41.119	1797.854246	1865.997566	12.35	1	0.140625	0.796875	0		
41.219	1796.387869	1864.43314	12.35	1	0.140625	0.796875	0		
41.327	1801.843709	1870.254154	12.35	1	0.140625	0.796875	0		
41.428	1767.393427	1833.514953	12.35	1	0.140625	0.796875	0		
41.529	1723.876877	1787.164531	12.4	1	0.140625	0.796875	0		
41.629	1721.89746	1785.057733	12.45	1	0.140625	0.796875	0		
41.737	1767.78395	1833.931198	12.5	1	0.140625	0.796875	0		
41.837	1789.331648	1856.906126	12.5	1	0.140625	0.796875	0		
41.937	1758.656424	1824.203843	12.5	1	0.140625	0.796875	0		
42.041	1741.932838	1806.388554	12.5	1	0.140625	0.796875	0		
42.141	1754.663132	1819.949012	12.5	1	0.140625	0.796875	0		
42.241	1760.004113	1825.63992	12.55	1	0.140625	0.796875	0		
42.345	1768.04047	1834.204617	12.65	1	0.140625	0.796875	0		
42.451	1778.504198	1845.359545	12.65	1	0.140625	0.796875	0		
42.553	1784.38502	1851.630463	12.65	1	0.140625	0.796875	0		
42.654	1791.276608	1858.980686	12.65	1	0.140625	0.796875	0		
42.757	1796.15432	1864.183983	12.65	1	0.140625	0.796875	0		
42.858	1802.915734	1871.39805	12.65	1	0.140625	0.796875	0		
42.959	1799.95618	1868.240173	12.65	1	0.140625	0.796875	0		
43.06	1801.254096	1869.625027	12.65	1	0.140625	0.796875	0		
43.166	1805.867631	1874.548053	12.65	1	0.140625	0.796875	0		
43.277	1805.634083	1874.29882	12.65	1	0.140625	0.796875	0		
43.38	1812.173434	1881.278037	0	1	0.140625	0.796875	0		
43.48	1788.286424	1855.791308	0	1	0.140625	0.796875	0		
43.58	1743.483445	1808.039986	0	1	0.140625	0.796875	0		
43.684	1686.631672	1747.544667	0	1	0.140625	0.796875	0		
43.785	1616.950061	1673.545895	0	1	0.140625	0.796875	0		
43.886	1557.081304	1610.098301	0	1	0.140625	0.796875	0		
43.986	1504.666949	1554.64935	0	1	0.140625	0.796875	0		
44.094	1463.237019	1510.885784	0	1	0.140625	0.796875	0		
44.194	1415.681233	1460.721901	0	1	0.140625	0.796875	0		
44.295	1370.093378	1412.704558	0	1	0.140625	0.796875	0		
44.399	1330.520349	1371.078565	0	1	0.140625	0.796875	0		
44.499	1293.412976	1332.093316	0	1	0.140625	0.796875	0		
44.6	1248.384106	1284.846891	0	1	0.140625	0.796875	0		
44.7	1206.774229	1241.247372	0	1	0.140625	0.796875	0		
44.808	1172.814015	1205.705601	0	1	0.140625	0.796875	0		
44.908	1132.593941	1163.661533	0	1	0.140625	0.796875	0		
45.009	1095.486568	1124.918458	0	1	0.140625	0.796875	0		
45.114	1062.104482	1090.103462	0	1	0.140625	0.796875	0		
45.215	1027.458938	1054.009356	0	1	0.140625	0.796875	0		
45.316	998.261576	1023.621693	0	1	0.140625	0.796875	0		
45.417	969.868234	994.097514	0	1	0.140625	0.796875	0		
45.523	944.231527	967.462337	0	1	0.140625	0.796875	0		
45.624	915.16434	937.288958	0	1	0.140625	0.796875	0		
45.725	883.662125	904.618902	0	1	0.140625	0.796875	0		
45.828	859.380764	879.459377	0	1	0.140625	0.796875	0		
45.929	838.920405	858.27389	0	1	0.140625	0.796875	0		
46.029	815.925473	834.480189	0	1	0.140625	0.796875	0		
46.129	792.268182	810.01898	0	1	0.140625	0.796875	0		
46.229	773.549864	790.6774	0	1	0.140625	0.796875	0		
46.329	758.461115	775.094481	0	1	0.140625	0.796875	0		
46.43	736.756441	752.691846	0	1	0.140625	0.796875	0		
46.53	716.744035	732.049357	0	1	0.140625	0.796875	0		
46.63	697.451418	712.161532	0	1	0.140625	0.796875	0		
46.738	682.546444	696.804919	0	1	0.140625	0.796875	0		
46.838	668.453147	682.291149	0	1	0.140625	0.796875	0		
46.939	656.783391	670.278059	0	1	0.140625	0.796875	0		
47.042	640.534558	653.558456	0	1	0.140625	0.796875	0		
47.143	626.720753	639.351094	0	1	0.140625	0.796875	0		
47.244	620.950962	633.418734	0	1	0.140625	0.796875	0		
47.344	608.634163	620.758469	0	1	0.140625	0.796875	0		
47.452	597.550192	609.369568	0	1	0.140625	0.796875	0		
47.552	585.750262	597.249335	0	1	0.140625	0.796875	0		
47.652	574.023077	585.208239	0	1	0.140625	0.796875	0		
47.757	562.808931	573.698031	0	1	0.140625	0.796875	0		
47.858	558.409801	569.183859	0	1	0.140625	0.796875	0		
47.958	557.173144	567.914973	0	1	0.140625	0.796875	0		
48.059	558.245169	569.014933	0	1	0.140625	0.796875	0		
48.167	560.381561	571.207106	0	1	0.140625	0.796875	0		
48.267	555.917343	566.626495	0	1	0.140625	0.796875	0		
48.368	553.834552	564.489619	0	1	0.140625	0.796875	0		
48.47	555.35453	566.049054	0	1	0.140625	0.796875	0		
48.571	557.942704	568.704584	0	1	0.140625	0.796875	0		
48.672	560.389218	571.214963	0	1	0.140625	0.796875	0		
48.772	558.034592	568.798867	0	1	0.140625	0.796875	0		
48.881	562.690243	573.576231	0	1	0.140625	0.796875	0		
48.981	561.824966	572.68828	0	1	0.140625	0.796875	0		
49.082	559.703888	570.511724	0	1	0.140625	0.796875	0		
49.185	558.049907	568.814581	0	1	0.140625	0.796875	0		
49.287	558.597405	569.376357	0	1	0.140625	0.796875	0		
49.388	556.131748	566.846476	0	1	0.140625	0.796875	0		
49.489	558.92667	569.714213	0	1	0.140625	0.796875	0		
49.589	561.828794	572.692209	0	1	0.140625	0.796875	0		
49.689	558.436602	569.211359	0	1	0.140625	0.796875	0		
49.79	556.062832	566.775768	0	1	0.140625	0.796875	0		
49.899	555.461733	566.159042	0	1	0.140625	0.796875	0		
50	557.046798	567.785338	0	1	0.140625	0.796875	0		
50.101	556.69839	567.42786	0	1	0.140625	0.796875	0		
50.203	553.482316	564.128249	0	1	0.140625	0.796875	0		
50.31	552.364347	562.981319	0	1	0.140625	0.796875	0		
50.411	556.629474	567.35715	0	1	0.140625	0.796875	0		
50.512	555.209041	565.899785	0	1	0.140625	0.796875	0		
50.616	556.07049	566.783624	0	1	0.140625	0.796875	0		
50.716	556.866851	567.600706	0	1	0.140625	0.796875	0		
50.817	554.761088	565.440198	0	1	0.140625	0.796875	0		
50.919	554.35525	565.023825	0	1	0.140625	0.796875	0		
51.023	557.111885	567.852119	0	1	0.140625	0.796875	0		
51.123	556.545244	567.270728	0	1	0.140625	0.796875	0		
51.224	555.09801	565.785869	0	1	0.140625	0.796875	0		
51.328	553.279397	563.92007	0	1	0.140625	0.796875	0		
